Filename:	D:\Users\Thermal_Users\LeBlanc\Ag1_8_31_16.tg1d

Temperature (°C)	Weight % (%)
26.213	99.9765
26.293	99.9766
26.384	99.9770
26.479	99.9770
26.579	99.9772
26.681	99.9769
26.779	99.9763
26.871	99.9757
26.957	99.9747
27.035	99.9734
27.106	99.9718
27.170	99.9701
27.227	99.9683
27.278	99.9665
27.324	99.9645
27.365	99.9625
27.401	99.9603
27.435	99.9581
27.464	99.9557
27.490	99.9532
27.514	99.9506
27.536	99.9483
27.555	99.9459
27.573	99.9434
27.590	99.9408
27.604	99.9380
27.618	99.9354
27.630	99.9327
27.642	99.9299
27.652	99.9272
27.662	99.9245
27.671	99.9218
27.679	99.9190
27.687	99.9161
27.694	99.9131
27.700	99.9101
27.706	99.9074
27.712	99.9045
27.717	99.9018
27.722	99.8990
27.727	99.8962
27.731	99.8933
27.735	99.8904
27.738	99.8875
27.742	99.8846
27.745	99.8817
27.748	99.8788
27.751	99.8758
27.755	99.8730
27.757	99.8701
27.760	99.8674
27.763	99.8645
27.765	99.8616
27.767	99.8588
27.769	99.8563
27.771	99.8535
27.773	99.8508
27.775	99.8481
27.777	99.8452
27.778	99.8423
27.780	99.8393
27.783	99.8364
27.793	99.8337
27.809	99.8311
27.835	99.8290
27.884	99.8272
28.054	99.8267
28.521	99.8313
29.218	99.8378
30.018	99.8426
30.842	99.8443
31.649	99.8432
32.419	99.8394
33.136	99.8333
33.796	99.8251
23.879	99.8152
16.207	99.8035
14.891	99.7903
16.610	99.7756
19.694	99.7596
23.314	99.7421
27.062	99.7238
30.762	99.7048
34.337	99.6849
37.765	99.6643
41.044	99.6433
44.185	99.6219
47.205	99.6002
50.116	99.5781
52.929	99.5559
55.659	99.5335
58.322	99.5108
60.919	99.4881
63.460	99.4654
65.947	99.4425
68.387	99.4197
70.785	99.3967
73.142	99.3737
75.465	99.3506
77.751	99.3273
80.010	99.3038
82.233	99.2798
84.396	99.2554
86.455	99.2303
88.365	99.2045
90.107	99.1781
91.678	99.1514
93.082	99.1244
94.338	99.0971
95.463	99.0694
96.469	99.0417
97.373	99.0140
98.186	98.9863
98.921	98.9585
99.585	98.9306
100.188	98.9027
100.742	98.8746
101.253	98.8463
101.729	98.8179
102.169	98.7893
102.577	98.7604
102.967	98.7314
103.334	98.7022
103.681	98.6723
104.007	98.6346
104.308	98.5868
104.590	98.5351
104.854	98.4850
105.100	98.4393
105.331	98.3982
105.550	98.3612
105.754	98.3272
105.955	98.2958
106.139	98.2662
106.315	98.2379
106.477	98.2105
106.635	98.1839
106.781	98.1577
106.920	98.1317
107.053	98.1060
107.183	98.0807
107.302	98.0552
107.417	98.0299
107.524	98.0048
107.627	97.9798
107.731	97.9549
107.827	97.9302
107.918	97.9056
108.007	97.8812
108.097	97.8568
108.177	97.8325
108.253	97.8084
108.325	97.7842
108.390	97.7600
108.453	97.7360
108.512	97.7119
108.573	97.6880
108.630	97.6640
108.683	97.6402
108.733	97.6167
108.782	97.5930
108.826	97.5695
108.875	97.5463
108.927	97.5232
108.975	97.5002
109.025	97.4772
109.074	97.4543
109.121	97.4313
109.166	97.4083
109.207	97.3855
109.246	97.3628
109.282	97.3400
109.316	97.3170
109.345	97.2941
109.375	97.2715
109.403	97.2489
109.428	97.2261
109.453	97.2034
109.477	97.1807
109.499	97.1583
109.518	97.1359
109.536	97.1136
109.552	97.0913
109.569	97.0691
109.585	97.0469
109.602	97.0251
109.616	97.0032
109.626	96.9815
109.640	96.9599
109.653	96.9383
109.666	96.9168
109.679	96.8952
109.691	96.8737
109.700	96.8523
109.711	96.8310
109.720	96.8096
109.726	96.7883
109.732	96.7670
109.737	96.7461
109.741	96.7248
109.748	96.7037
109.754	96.6831
109.762	96.6622
109.766	96.6411
109.770	96.6200
109.774	96.5992
109.779	96.5785
109.783	96.5578
109.787	96.5371
109.789	96.5165
109.795	96.4958
109.797	96.4752
109.802	96.4550
109.807	96.4350
109.814	96.4149
109.820	96.3949
109.826	96.3749
109.829	96.3552
109.829	96.3353
109.833	96.3155
109.833	96.2958
109.828	96.2761
109.829	96.2564
109.828	96.2367
109.831	96.2172
109.827	96.1977
109.826	96.1784
109.822	96.1591
109.815	96.1398
109.811	96.1205
109.808	96.1013
109.806	96.0821
109.806	96.0630
109.806	96.0440
109.808	96.0250
109.814	96.0062
109.818	95.9870
109.820	95.9680
109.826	95.9491
109.830	95.9303
109.832	95.9119
109.834	95.8936
109.835	95.8752
109.839	95.8567
109.837	95.8384
109.835	95.8202
109.832	95.8020
109.832	95.7838
109.833	95.7658
109.835	95.7478
109.836	95.7300
109.837	95.7121
109.836	95.6943
109.836	95.6764
109.834	95.6587
109.826	95.6410
109.824	95.6233
109.817	95.6056
109.815	95.5878
109.821	95.5701
109.827	95.5525
109.830	95.5348
109.834	95.5171
109.837	95.4992
109.837	95.4815
109.836	95.4639
109.832	95.4463
109.827	95.4288
109.825	95.4114
109.831	95.3941
109.840	95.3770
109.846	95.3603
109.851	95.3435
109.854	95.3265
109.856	95.3095
109.857	95.2926
109.857	95.2757
109.858	95.2588
109.858	95.2424
109.858	95.2261
109.858	95.2098
109.858	95.1933
109.857	95.1770
109.857	95.1608
109.855	95.1448
109.852	95.1288
109.850	95.1129
109.844	95.0970
109.841	95.0811
109.839	95.0651
109.836	95.0491
109.835	95.0332
109.834	95.0174
109.834	95.0014
109.834	94.9853
109.833	94.9692
109.834	94.9533
109.842	94.9374
109.848	94.9216
109.848	94.9059
109.841	94.8905
109.838	94.8750
109.838	94.8595
109.836	94.8441
109.833	94.8286
109.832	94.8134
109.830	94.7982
109.833	94.7831
109.833	94.7682
109.830	94.7530
109.828	94.7380
109.826	94.7232
109.823	94.7088
109.822	94.6943
109.820	94.6796
109.815	94.6649
109.814	94.6503
109.816	94.6357
109.817	94.6211
109.814	94.6067
109.814	94.5923
109.811	94.5779
109.808	94.5638
109.808	94.5494
109.806	94.5351
109.805	94.5210
109.805	94.5069
109.804	94.4928
109.804	94.4786
109.805	94.4647
109.813	94.4507
109.819	94.4368
109.824	94.4228
109.824	94.4088
109.820	94.3950
109.822	94.3815
109.823	94.3680
109.823	94.3545
109.824	94.3410
109.823	94.3275
109.822	94.3140
109.819	94.3005
109.811	94.2871
109.803	94.2739
109.801	94.2608
109.799	94.2477
109.801	94.2344
109.803	94.2211
109.800	94.2079
109.797	94.1948
109.795	94.1820
109.793	94.1691
109.793	94.1565
109.795	94.1437
109.798	94.1310
109.794	94.1183
109.785	94.1056
109.774	94.0930
109.761	94.0805
109.749	94.0680
109.740	94.0559
109.735	94.0437
109.735	94.0314
109.738	94.0190
109.744	94.0065
109.753	93.9941
109.757	93.9819
109.760	93.9699
109.765	93.9579
109.768	93.9459
109.771	93.9340
109.772	93.9220
109.774	93.9101
109.776	93.8983
109.777	93.8865
109.777	93.8748
109.778	93.8632
109.777	93.8515
109.776	93.8399
109.776	93.8281
109.776	93.8163
109.776	93.8049
109.776	93.7936
109.778	93.7824
109.778	93.7711
109.777	93.7597
109.777	93.7484
109.775	93.7371
109.769	93.7260
109.759	93.7149
109.753	93.7038
109.749	93.6929
109.747	93.6819
109.746	93.6710
109.745	93.6599
109.745	93.6491
109.751	93.6383
109.750	93.6279
109.748	93.6173
109.746	93.6065
109.744	93.5958
109.742	93.5852
109.742	93.5745
109.742	93.5639
109.743	93.5533
109.742	93.5427
109.739	93.5321
109.739	93.5220
109.738	93.5119
109.735	93.5018
109.735	93.4916
109.744	93.4814
109.750	93.4714
109.753	93.4612
109.755	93.4511
109.757	93.4411
109.757	93.4310
109.757	93.4208
109.754	93.4112
109.755	93.4016
109.754	93.3920
109.752	93.3824
109.750	93.3728
109.750	93.3633
109.729	93.3538
109.717	93.3444
109.702	93.3348
109.687	93.3253
109.667	93.3159
109.646	93.3066
109.622	93.2974
109.604	93.2881
109.583	93.2789
109.562	93.2700
109.538	93.2610
109.526	93.2523
109.512	93.2433
109.502	93.2345
109.488	93.2256
109.478	93.2169
109.471	93.2082
109.470	93.1994
109.468	93.1907
109.466	93.1823
109.463	93.1738
109.465	93.1653
109.467	93.1569
109.468	93.1486
109.474	93.1404
109.479	93.1321
109.492	93.1239
109.511	93.1158
109.531	93.1078
109.546	93.0997
109.561	93.0917
109.582	93.0836
109.601	93.0757
109.611	93.0677
109.618	93.0598
109.623	93.0519
109.631	93.0442
109.643	93.0364
109.652	93.0287
109.659	93.0210
109.660	93.0131
109.666	93.0056
109.669	92.9980
109.675	92.9905
109.679	92.9830
109.679	92.9756
109.680	92.9683
109.681	92.9610
109.682	92.9536
109.685	92.9463
109.687	92.9391
109.688	92.9319
109.690	92.9248
109.688	92.9177
109.685	92.9108
109.683	92.9039
109.680	92.8971
109.672	92.8902
109.667	92.8836
109.665	92.8771
109.660	92.8703
109.658	92.8635
109.665	92.8568
109.672	92.8502
109.675	92.8436
109.677	92.8370
109.671	92.8305
109.667	92.8241
109.663	92.8177
109.666	92.8113
109.666	92.8051
109.669	92.7989
109.675	92.7927
109.678	92.7867
109.678	92.7806
109.679	92.7745
109.679	92.7685
109.677	92.7626
109.677	92.7566
109.670	92.7507
109.675	92.7448
109.675	92.7390
109.678	92.7333
109.675	92.7275
109.674	92.7218
109.665	92.7161
109.666	92.7105
109.669	92.7049
109.665	92.6993
109.664	92.6937
109.669	92.6883
109.666	92.6829
109.668	92.6778
109.667	92.6726
109.669	92.6674
109.672	92.6622
109.676	92.6572
109.674	92.6523
109.673	92.6474
109.661	92.6423
109.656	92.6372
109.659	92.6322
109.662	92.6272
109.656	92.6223
109.654	92.6175
109.644	92.6128
109.648	92.6081
109.653	92.6032
109.651	92.5984
109.649	92.5938
109.644	92.5892
109.641	92.5847
109.642	92.5800
109.644	92.5754
109.640	92.5711
109.644	92.5668
109.646	92.5624
109.647	92.5580
109.647	92.5536
109.638	92.5494
109.635	92.5452
109.626	92.5410
109.624	92.5372
109.624	92.5333
109.624	92.5292
109.624	92.5249
109.622	92.5206
109.614	92.5165
109.617	92.5122
109.608	92.5081
109.595	92.5042
109.598	92.5004
109.600	92.4965
109.595	92.4927
109.586	92.4888
109.591	92.4851
109.593	92.4816
109.596	92.4780
109.598	92.4743
109.594	92.4707
109.594	92.4671
109.594	92.4635
109.593	92.4600
109.594	92.4565
109.599	92.4531
109.600	92.4498
109.598	92.4464
109.596	92.4431
109.596	92.4397
109.595	92.4364
109.592	92.4332
109.589	92.4300
109.593	92.4268
109.592	92.4237
109.591	92.4207
109.590	92.4177
109.580	92.4147
109.576	92.4118
109.574	92.4090
109.573	92.4060
109.570	92.4031
109.567	92.4001
109.566	92.3972
109.567	92.3945
109.569	92.3918
109.558	92.3890
109.559	92.3863
109.563	92.3835
109.565	92.3807
109.565	92.3780
109.561	92.3753
109.559	92.3727
109.557	92.3702
109.549	92.3676
109.545	92.3651
109.545	92.3625
109.539	92.3600
109.534	92.3575
109.533	92.3550
109.524	92.3526
109.516	92.3502
109.515	92.3479
109.513	92.3456
109.508	92.3436
109.505	92.3418
109.501	92.3401
109.493	92.3381
109.491	92.3359
109.493	92.3338
109.494	92.3316
109.492	92.3296
109.489	92.3278
109.492	92.3259
109.490	92.3239
109.482	92.3220
109.476	92.3197
109.474	92.3176
109.482	92.3155
109.482	92.3135
109.482	92.3117
109.485	92.3098
109.481	92.3076
109.482	92.3056
109.484	92.3037
109.490	92.3019
109.492	92.3002
109.490	92.2985
109.486	92.2967
109.482	92.2950
109.479	92.2933
109.474	92.2913
109.472	92.2893
109.468	92.2874
109.464	92.2858
109.462	92.2839
109.458	92.2822
109.459	92.2805
109.457	92.2788
109.452	92.2771
109.447	92.2755
109.445	92.2738
109.438	92.2721
109.436	92.2705
109.433	92.2690
109.430	92.2675
109.426	92.2658
109.422	92.2640
109.423	92.2623
109.419	92.2607
109.418	92.2591
109.419	92.2576
109.415	92.2562
109.410	92.2547
109.405	92.2532
109.403	92.2518
109.400	92.2502
109.400	92.2488
109.396	92.2474
109.386	92.2460
109.376	92.2447
109.366	92.2433
109.358	92.2419
109.347	92.2405
109.334	92.2390
109.330	92.2376
109.321	92.2362
109.312	92.2349
109.306	92.2335
109.299	92.2321
109.292	92.2308
109.287	92.2294
109.287	92.2280
109.282	92.2267
109.281	92.2253
109.281	92.2241
109.274	92.2229
109.270	92.2216
109.269	92.2204
109.257	92.2192
109.254	92.2179
109.255	92.2167
109.256	92.2154
109.263	92.2142
109.270	92.2130
109.272	92.2117
109.277	92.2106
109.289	92.2095
109.294	92.2084
109.303	92.2071
109.311	92.2060
109.319	92.2048
109.323	92.2036
109.328	92.2025
109.334	92.2013
109.336	92.2002
109.336	92.1991
109.334	92.1982
109.336	92.1973
109.340	92.1964
109.342	92.1954
109.342	92.1944
109.352	92.1933
109.349	92.1921
109.349	92.1910
109.352	92.1900
109.352	92.1890
109.355	92.1882
109.354	92.1872
109.356	92.1860
109.354	92.1848
109.357	92.1837
109.358	92.1825
109.359	92.1814
109.360	92.1806
109.358	92.1796
109.364	92.1787
109.364	92.1777
109.367	92.1768
109.368	92.1761
109.371	92.1753
109.373	92.1743
109.373	92.1733
109.384	92.1723
109.385	92.1713
109.387	92.1701
109.381	92.1690
109.377	92.1682
109.375	92.1673
109.379	92.1664
109.383	92.1656
109.379	92.1648
109.378	92.1640
109.375	92.1632
109.376	92.1623
109.376	92.1614
109.381	92.1606
109.385	92.1597
109.375	92.1589
109.374	92.1581
109.380	92.1573
109.384	92.1565
109.369	92.1557
109.359	92.1548
109.356	92.1540
109.354	92.1532
109.356	92.1524
109.353	92.1516
109.345	92.1509
109.340	92.1501
109.340	92.1494
109.340	92.1485
109.341	92.1478
109.338	92.1470
109.345	92.1462
109.356	92.1454
109.357	92.1446
109.355	92.1439
109.356	92.1432
109.354	92.1424
109.342	92.1416
109.341	92.1408
109.345	92.1399
109.339	92.1392
109.339	92.1385
109.345	92.1379
109.346	92.1372
109.346	92.1365
109.350	92.1358
109.348	92.1352
109.350	92.1344
109.354	92.1336
109.358	92.1329
109.361	92.1323
109.359	92.1316
109.359	92.1311
109.358	92.1305
109.353	92.1299
109.354	92.1292
109.350	92.1285
109.349	92.1278
109.349	92.1270
109.350	92.1263
109.354	92.1258
109.359	92.1253
109.359	92.1247
109.359	92.1241
109.354	92.1234
109.348	92.1226
109.352	92.1220
109.347	92.1215
109.343	92.1210
109.345	92.1204
109.338	92.1198
109.329	92.1192
109.324	92.1187
109.324	92.1180
109.322	92.1174
109.327	92.1168
109.325	92.1162
109.317	92.1156
109.313	92.1148
109.320	92.1141
109.313	92.1135
109.319	92.1129
109.321	92.1123
109.319	92.1118
109.304	92.1112
109.296	92.1105
109.296	92.1099
109.303	92.1093
109.296	92.1088
109.288	92.1083
109.283	92.1078
109.281	92.1072
109.289	92.1067
109.282	92.1062
109.276	92.1056
109.276	92.1051
109.272	92.1046
109.269	92.1042
109.273	92.1037
109.266	92.1034
109.263	92.1028
109.260	92.1023
109.262	92.1017
109.258	92.1013
109.254	92.1008
109.254	92.1001
109.248	92.0996
109.249	92.0990
109.248	92.0985
109.253	92.0980
109.250	92.0975
109.234	92.0971
109.230	92.0966
109.232	92.0961
109.229	92.0957
109.228	92.0953
109.227	92.0949
109.221	92.0944
109.212	92.0938
109.205	92.0933
109.209	92.0929
109.201	92.0925
109.196	92.0920
109.197	92.0914
109.186	92.0911
109.183	92.0908
109.176	92.0905
109.172	92.0898
109.165	92.0891
109.146	92.0885
109.141	92.0880
109.143	92.0875
109.139	92.0873
109.138	92.0870
109.137	92.0866
109.139	92.0859
109.128	92.0855
109.125	92.0850
109.132	92.0845
109.133	92.0841
109.145	92.0837
109.143	92.0832
109.157	92.0828
109.172	92.0826
109.177	92.0822
109.181	92.0820
109.194	92.0817
109.206	92.0812
109.214	92.0807
109.222	92.0801
109.223	92.0795
109.229	92.0791
109.239	92.0788
109.244	92.0783
109.248	92.0778
109.249	92.0774
109.249	92.0770
109.246	92.0765
109.246	92.0761
109.243	92.0758
109.238	92.0753
109.237	92.0748
109.237	92.0744
109.235	92.0740
109.233	92.0737
109.232	92.0734
109.232	92.0731
109.232	92.0726
109.230	92.0721
109.232	92.0715
109.234	92.0712
109.226	92.0709
109.225	92.0706
109.228	92.0702
109.233	92.0700
109.232	92.0697
109.235	92.0695
109.239	92.0690
109.244	92.0685
109.247	92.0682
109.248	92.0679
109.249	92.0676
109.249	92.0671
109.250	92.0668
109.250	92.0665
109.250	92.0661
109.251	92.0656
109.252	92.0651
109.251	92.0647
109.250	92.0642
109.248	92.0638
109.247	92.0635
109.247	92.0632
109.246	92.0628
109.245	92.0625
109.246	92.0622
109.245	92.0619
109.239	92.0616
109.236	92.0612
109.235	92.0609
109.232	92.0605
109.231	92.0603
109.232	92.0601
109.231	92.0599
109.230	92.0595
109.226	92.0592
109.239	92.0587
109.247	92.0584
109.248	92.0583
109.251	92.0580
109.254	92.0576
109.255	92.0572
109.257	92.0570
109.257	92.0568
109.255	92.0564
109.253	92.0560
109.249	92.0557
109.248	92.0554
109.241	92.0550
109.237	92.0548
109.236	92.0547
109.233	92.0542
109.233	92.0540
109.231	92.0537
109.219	92.0533
109.218	92.0528
109.218	92.0525
109.217	92.0523
109.218	92.0521
109.217	92.0518
109.215	92.0514
109.216	92.0510
109.216	92.0506
109.218	92.0502
109.222	92.0499
109.226	92.0496
109.229	92.0492
109.233	92.0490
109.238	92.0488
109.239	92.0485
109.248	92.0481
109.249	92.0477
109.248	92.0475
109.249	92.0473
109.250	92.0470
109.253	92.0466
109.253	92.0463
109.249	92.0460
109.245	92.0457
109.243	92.0455
109.244	92.0452
109.247	92.0450
109.251	92.0448
109.253	92.0443
109.256	92.0440
109.259	92.0437
109.263	92.0436
109.264	92.0433
109.264	92.0430
109.265	92.0428
109.263	92.0425
109.263	92.0421
109.261	92.0418
109.260	92.0416
109.257	92.0416
109.255	92.0414
109.253	92.0412
109.252	92.0409
109.252	92.0406
109.252	92.0406
109.249	92.0404
109.250	92.0402
109.249	92.0398
109.250	92.0395
109.248	92.0392
109.273	92.0390
109.358	92.0387
109.507	92.0384
109.762	92.0383
110.154	92.0383
110.690	92.0384
111.369	92.0383
112.175	92.0383
113.103	92.0382
114.136	92.0380
115.255	92.0379
116.447	92.0378
117.707	92.0376
119.023	92.0373
120.389	92.0370
121.800	92.0368
123.253	92.0365
124.738	92.0361
126.254	92.0355
127.798	92.0350
129.364	92.0344
130.952	92.0338
132.557	92.0331
134.180	92.0322
135.819	92.0313
137.472	92.0302
139.140	92.0291
140.821	92.0278
142.514	92.0266
144.219	92.0253
145.933	92.0240
147.655	92.0224
149.385	92.0207
151.118	92.0191
152.851	92.0174
154.578	92.0155
156.297	92.0135
158.008	92.0114
159.708	92.0090
161.399	92.0067
163.081	92.0046
164.761	92.0020
166.437	91.9990
168.109	91.9958
169.779	91.9924
171.441	91.9891
173.089	91.9856
174.729	91.9819
176.369	91.9780
178.012	91.9741
179.662	91.9700
181.315	91.9658
182.973	91.9615
184.628	91.9570
186.286	91.9523
187.946	91.9472
189.607	91.9420
191.258	91.9364
192.860	91.9308
194.378	91.9246
195.768	91.9182
197.010	91.9116
198.104	91.9049
199.061	91.8979
199.895	91.8909
200.622	91.8837
201.258	91.8763
201.822	91.8688
202.326	91.8613
202.778	91.8537
203.189	91.8462
203.564	91.8387
203.910	91.8314
204.228	91.8242
204.525	91.8172
204.798	91.8102
205.053	91.8032
205.290	91.7960
205.515	91.7889
205.723	91.7824
205.920	91.7762
206.107	91.7697
206.280	91.7630
206.445	91.7568
206.599	91.7506
206.741	91.7444
206.877	91.7383
207.004	91.7326
207.123	91.7271
207.237	91.7217
207.346	91.7164
207.448	91.7112
207.547	91.7063
207.647	91.7013
207.740	91.6964
207.829	91.6915
207.915	91.6867
207.995	91.6821
208.071	91.6774
208.144	91.6728
208.212	91.6684
208.276	91.6641
208.336	91.6598
208.392	91.6556
208.446	91.6514
208.497	91.6472
208.544	91.6429
208.590	91.6390
208.635	91.6352
208.682	91.6316
208.724	91.6278
208.764	91.6241
208.804	91.6203
208.842	91.6167
208.878	91.6132
208.911	91.6098
208.942	91.6062
208.970	91.6028
208.999	91.5993
209.028	91.5960
209.055	91.5926
209.085	91.5892
209.112	91.5859
209.138	91.5827
209.165	91.5793
209.189	91.5761
209.211	91.5730
209.232	91.5699
209.250	91.5668
209.269	91.5638
209.287	91.5610
209.302	91.5579
209.317	91.5548
209.330	91.5516
209.341	91.5487
209.351	91.5458
209.361	91.5430
209.370	91.5400
209.378	91.5371
209.383	91.5345
209.390	91.5319
209.394	91.5292
209.400	91.5264
209.407	91.5237
209.414	91.5209
209.421	91.5181
209.427	91.5154
209.432	91.5127
209.434	91.5101
209.438	91.5076
209.445	91.5050
209.451	91.5024
209.455	91.4999
209.461	91.4973
209.470	91.4947
209.478	91.4921
209.491	91.4895
209.504	91.4870
209.519	91.4845
209.533	91.4820
209.546	91.4795
209.559	91.4770
209.573	91.4745
209.585	91.4721
209.594	91.4697
209.599	91.4673
209.602	91.4648
209.603	91.4624
209.604	91.4599
209.605	91.4575
209.604	91.4550
209.598	91.4524
209.592	91.4499
209.588	91.4476
209.586	91.4451
209.585	91.4428
209.584	91.4403
209.582	91.4378
209.582	91.4352
209.578	91.4329
209.579	91.4305
209.581	91.4282
209.583	91.4257
209.583	91.4231
209.586	91.4207
209.583	91.4185
209.577	91.4161
209.567	91.4138
209.554	91.4115
209.545	91.4091
209.538	91.4067
209.531	91.4045
209.524	91.4021
209.522	91.3998
209.521	91.3976
209.520	91.3952
209.523	91.3928
209.525	91.3904
209.528	91.3883
209.530	91.3861
209.531	91.3841
209.532	91.3819
209.529	91.3797
209.530	91.3775
209.529	91.3752
209.530	91.3731
209.527	91.3710
209.528	91.3688
209.527	91.3667
209.527	91.3645
209.523	91.3624
209.518	91.3603
209.514	91.3583
209.510	91.3563
209.509	91.3543
209.513	91.3524
209.519	91.3505
209.528	91.3485
209.537	91.3463
209.543	91.3442
209.548	91.3422
209.552	91.3403
209.557	91.3383
209.562	91.3364
209.566	91.3345
209.568	91.3326
209.570	91.3308
209.570	91.3289
209.571	91.3271
209.572	91.3252
209.572	91.3234
209.572	91.3216
209.577	91.3198
209.584	91.3180
209.593	91.3163
209.599	91.3146
209.605	91.3128
209.607	91.3112
209.606	91.3095
209.606	91.3079
209.605	91.3062
209.604	91.3044
209.600	91.3027
209.601	91.3010
209.603	91.2993
209.605	91.2975
209.613	91.2959
209.620	91.2943
209.627	91.2926
209.627	91.2910
209.630	91.2893
209.632	91.2876
209.634	91.2861
209.634	91.2847
209.629	91.2831
209.625	91.2816
209.623	91.2799
209.622	91.2782
209.620	91.2767
209.621	91.2753
209.621	91.2739
209.623	91.2724
209.625	91.2710
209.627	91.2698
209.624	91.2684
209.626	91.2669
209.630	91.2655
209.631	91.2641
209.634	91.2627
209.637	91.2612
209.639	91.2599
209.637	91.2586
209.636	91.2575
209.634	91.2562
209.631	91.2547
209.628	91.2532
209.630	91.2517
209.631	91.2504
209.635	91.2492
209.636	91.2478
209.641	91.2465
209.643	91.2451
209.640	91.2438
209.640	91.2425
209.640	91.2412
209.640	91.2400
209.642	91.2387
209.639	91.2375
209.632	91.2362
209.620	91.2350
209.603	91.2337
209.580	91.2324
209.556	91.2309
209.536	91.2297
209.514	91.2287
209.497	91.2276
209.487	91.2265
209.479	91.2254
209.472	91.2243
209.464	91.2232
209.461	91.2220
209.457	91.2210
209.454	91.2199
209.452	91.2188
209.450	91.2176
209.448	91.2164
209.444	91.2153
209.440	91.2143
209.436	91.2133
209.430	91.2122
209.424	91.2111
209.413	91.2101
209.401	91.2089
209.395	91.2076
209.392	91.2063
209.391	91.2052
209.390	91.2042
209.389	91.2033
209.390	91.2023
209.391	91.2013
209.395	91.2003
209.401	91.1992
209.406	91.1982
209.406	91.1972
209.405	91.1962
209.405	91.1952
209.405	91.1942
209.409	91.1932
209.412	91.1923
209.414	91.1913
209.415	91.1903
209.413	91.1893
209.412	91.1886
209.405	91.1877
209.398	91.1869
209.393	91.1860
209.383	91.1851
209.372	91.1842
209.365	91.1832
209.358	91.1822
209.356	91.1811
209.360	91.1801
209.366	91.1790
209.378	91.1780
209.393	91.1771
209.403	91.1761
209.413	91.1751
209.419	91.1741
209.429	91.1733
209.441	91.1726
209.450	91.1718
209.461	91.1709
209.471	91.1700
209.477	91.1692
209.482	91.1683
209.483	91.1674
209.486	91.1664
209.489	91.1655
209.494	91.1646
209.500	91.1636
209.503	91.1628
209.506	91.1620
209.507	91.1610
209.507	91.1599
209.505	91.1589
209.505	91.1580
209.505	91.1571
209.505	91.1564
209.505	91.1556
209.504	91.1547
209.506	91.1539
209.506	91.1529
209.503	91.1521
209.496	91.1512
209.490	91.1504
209.482	91.1496
209.470	91.1487
209.462	91.1480
209.453	91.1473
209.444	91.1466
209.440	91.1457
209.437	91.1449
209.432	91.1440
209.431	91.1430
209.428	91.1423
209.426	91.1414
209.428	91.1405
209.429	91.1398
209.437	91.1389
209.444	91.1381
209.449	91.1373
209.453	91.1365
209.458	91.1357
209.466	91.1349
209.474	91.1342
209.478	91.1334
209.483	91.1328
209.486	91.1320
209.489	91.1312
209.488	91.1304
209.486	91.1296
209.478	91.1288
209.468	91.1280
209.461	91.1272
209.452	91.1264
209.445	91.1257
209.444	91.1248
209.450	91.1240
209.457	91.1233
209.465	91.1224
209.474	91.1217
209.477	91.1209
209.476	91.1200
209.479	91.1192
209.478	91.1185
209.477	91.1181
209.476	91.1175
209.479	91.1166
209.482	91.1157
209.484	91.1147
209.486	91.1137
209.488	91.1130
209.491	91.1124
209.494	91.1116
209.499	91.1108
209.501	91.1100
209.502	91.1091
209.504	91.1083
209.507	91.1077
209.511	91.1071
209.514	91.1066
209.517	91.1059
209.520	91.1050
209.526	91.1043
209.530	91.1037
209.532	91.1029
209.533	91.1021
209.534	91.1013
209.533	91.1005
209.533	91.0997
209.533	91.0989
209.527	91.0982
209.521	91.0975
209.515	91.0967
209.509	91.0959
209.500	91.0953
209.494	91.0947
209.489	91.0938
209.483	91.0929
209.480	91.0920
209.475	91.0914
209.470	91.0908
209.462	91.0900
209.455	91.0893
209.445	91.0885
209.436	91.0879
209.429	91.0871
209.424	91.0863
209.416	91.0855
209.410	91.0847
209.405	91.0840
209.402	91.0833
209.401	91.0826
209.399	91.0821
209.399	91.0815
209.400	91.0807
209.398	91.0800
209.399	91.0793
209.398	91.0785
209.397	91.0777
209.396	91.0770
209.397	91.0764
209.398	91.0756
209.396	91.0750
209.395	91.0743
209.393	91.0736
209.392	91.0727
209.392	91.0719
209.393	91.0712
209.393	91.0706
209.393	91.0700
209.393	91.0695
209.392	91.0688
209.392	91.0680
209.392	91.0674
209.394	91.0669
209.397	91.0663
209.403	91.0656
209.413	91.0647
209.424	91.0639
209.435	91.0633
209.444	91.0625
209.454	91.0617
209.463	91.0610
209.471	91.0602
209.477	91.0595
209.482	91.0588
209.484	91.0581
209.486	91.0575
209.488	91.0569
209.488	91.0563
209.489	91.0555
209.489	91.0548
209.489	91.0540
209.488	91.0533
209.488	91.0527
209.488	91.0520
209.485	91.0512
209.480	91.0505
209.472	91.0499
209.459	91.0493
209.445	91.0487
209.434	91.0480
209.424	91.0474
209.414	91.0467
209.408	91.0460
209.404	91.0454
209.404	91.0448
209.402	91.0443
209.401	91.0435
209.400	91.0428
209.399	91.0421
209.399	91.0415
209.399	91.0410
209.396	91.0403
209.394	91.0396
209.393	91.0390
209.392	91.0384
209.391	91.0378
209.389	91.0373
209.388	91.0365
209.387	91.0358
209.383	91.0351
209.382	91.0345
209.382	91.0338
209.382	91.0333
209.380	91.0326
209.384	91.0320
209.382	91.0314
209.381	91.0308
209.379	91.0301
209.377	91.0295
209.372	91.0289
209.371	91.0283
209.368	91.0277
209.364	91.0271
209.364	91.0264
209.361	91.0256
209.360	91.0249
209.359	91.0244
209.359	91.0239
209.362	91.0234
209.364	91.0226
209.365	91.0220
209.366	91.0214
209.366	91.0207
209.366	91.0202
209.366	91.0196
209.365	91.0190
209.366	91.0183
209.362	91.0178
209.357	91.0171
209.353	91.0167
209.352	91.0161
209.350	91.0155
209.349	91.0149
209.349	91.0142
209.348	91.0135
209.347	91.0130
209.347	91.0124
209.346	91.0120
209.346	91.0117
209.345	91.0110
209.341	91.0104
209.340	91.0097
209.342	91.0091
209.344	91.0084
209.345	91.0079
209.346	91.0074
209.346	91.0068
209.341	91.0062
209.332	91.0057
209.326	91.0050
209.318	91.0043
209.312	91.0037
209.306	91.0031
209.305	91.0025
209.303	91.0019
209.303	91.0013
209.300	91.0007
209.300	91.0002
209.300	90.9996
209.299	90.9989
209.297	90.9985
209.295	90.9979
209.292	90.9974
209.290	90.9969
209.288	90.9963
209.289	90.9957
209.290	90.9951
209.290	90.9945
209.292	90.9940
209.291	90.9935
209.293	90.9930
209.292	90.9924
209.291	90.9917
209.291	90.9912
209.292	90.9906
209.294	90.9901
209.298	90.9895
209.297	90.9889
209.300	90.9884
209.298	90.9878
209.299	90.9871
209.302	90.9866
209.308	90.9861
209.313	90.9857
209.321	90.9852
209.326	90.9847
209.330	90.9843
209.333	90.9838
209.335	90.9832
209.336	90.9825
209.338	90.9820
209.338	90.9815
209.334	90.9810
209.330	90.9803
209.324	90.9796
209.317	90.9791
209.311	90.9786
209.305	90.9782
209.296	90.9777
209.289	90.9771
209.283	90.9765
209.279	90.9757
209.277	90.9750
209.278	90.9745
209.280	90.9740
209.282	90.9735
209.282	90.9733
209.283	90.9729
209.285	90.9723
209.285	90.9717
209.287	90.9711
209.291	90.9706
209.293	90.9701
209.293	90.9696
209.291	90.9690
209.287	90.9683
209.283	90.9678
209.280	90.9675
209.276	90.9670
209.272	90.9665
209.268	90.9661
209.266	90.9654
209.260	90.9647
209.257	90.9640
209.253	90.9635
209.248	90.9628
209.242	90.9621
209.241	90.9618
209.239	90.9613
209.236	90.9608
209.232	90.9605
209.226	90.9601
209.222	90.9597
209.216	90.9593
209.210	90.9588
209.203	90.9583
209.198	90.9578
209.193	90.9572
209.187	90.9567
209.182	90.9560
209.181	90.9555
209.183	90.9551
209.186	90.9545
209.189	90.9541
209.192	90.9535
209.195	90.9530
209.198	90.9526
209.202	90.9522
209.213	90.9516
209.219	90.9511
209.226	90.9506
209.230	90.9502
209.234	90.9498
209.238	90.9494
209.237	90.9490
209.237	90.9485
209.236	90.9480
209.235	90.9475
209.235	90.9470
209.233	90.9465
209.233	90.9459
209.229	90.9455
209.227	90.9451
209.225	90.9446
209.226	90.9443
209.226	90.9439
209.225	90.9434
209.225	90.9428
209.226	90.9421
209.227	90.9416
209.223	90.9413
209.212	90.9408
209.197	90.9403
209.169	90.9399
209.141	90.9394
209.105	90.9390
209.069	90.9385
209.040	90.9380
209.013	90.9375
208.990	90.9369
208.969	90.9365
208.957	90.9360
208.947	90.9356
208.939	90.9352
208.936	90.9347
208.926	90.9342
208.918	90.9336
208.912	90.9331
208.907	90.9326
208.903	90.9321
208.901	90.9318
208.901	90.9316
208.901	90.9312
208.904	90.9308
208.905	90.9302
208.907	90.9296
208.907	90.9291
208.905	90.9285
208.901	90.9279
208.895	90.9275
208.889	90.9269
208.885	90.9264
208.881	90.9259
208.877	90.9256
208.874	90.9252
208.872	90.9248
208.869	90.9244
208.871	90.9240
208.868	90.9236
208.870	90.9230
208.872	90.9223
208.869	90.9218
208.866	90.9216
208.860	90.9213
208.854	90.9209
208.847	90.9205
208.838	90.9200
208.833	90.9196
208.825	90.9192
208.817	90.9187
208.807	90.9183
208.798	90.9178
208.785	90.9174
208.771	90.9168
208.756	90.9163
208.741	90.9159
208.725	90.9155
208.711	90.9151
208.695	90.9147
208.678	90.9143
208.669	90.9139
208.659	90.9136
208.655	90.9133
208.650	90.9128
208.647	90.9125
208.641	90.9121
208.644	90.9116
208.656	90.9110
208.668	90.9105
208.686	90.9100
208.699	90.9095
208.703	90.9091
208.703	90.9088
208.702	90.9085
208.705	90.9081
208.706	90.9075
208.707	90.9070
208.707	90.9065
208.705	90.9060
208.707	90.9055
208.708	90.9052
208.711	90.9049
208.712	90.9047
208.714	90.9043
208.716	90.9039
208.720	90.9035
208.732	90.9031
208.750	90.9027
208.780	90.9021
208.811	90.9015
208.844	90.9011
208.875	90.9007
208.903	90.9003
208.925	90.8999
208.946	90.8995
208.964	90.8992
208.980	90.8988
208.994	90.8983
209.005	90.8979
209.014	90.8976
209.023	90.8971
209.034	90.8967
209.043	90.8964
209.049	90.8959
209.055	90.8954
209.060	90.8952
209.065	90.8950
209.067	90.8944
209.071	90.8939
209.078	90.8935
209.090	90.8932
209.104	90.8928
209.117	90.8923
209.129	90.8918
209.141	90.8917
209.145	90.8914
209.141	90.8909
209.139	90.8905
209.137	90.8899
209.135	90.8894
209.135	90.8886
209.141	90.8880
209.141	90.8877
209.144	90.8874
209.150	90.8870
209.156	90.8867
209.157	90.8863
209.160	90.8859
209.160	90.8855
209.156	90.8851
209.153	90.8848
209.148	90.8843
209.141	90.8840
209.133	90.8838
209.123	90.8837
209.117	90.8833
209.111	90.8828
209.102	90.8823
209.096	90.8818
209.092	90.8811
209.088	90.8806
209.086	90.8802
209.083	90.8797
209.078	90.8791
209.074	90.8788
209.070	90.8784
209.065	90.8779
209.059	90.8775
209.057	90.8771
209.052	90.8767
209.048	90.8760
209.040	90.8754
209.038	90.8751
209.041	90.8748
209.044	90.8746
209.046	90.8745
209.051	90.8742
209.056	90.8740
209.060	90.8736
209.067	90.8730
209.075	90.8725
209.085	90.8720
209.087	90.8715
209.092	90.8711
209.095	90.8709
209.098	90.8706
209.099	90.8702
209.093	90.8698
209.089	90.8693
209.078	90.8690
209.070	90.8685
209.059	90.8681
209.054	90.8676
209.053	90.8671
209.052	90.8668
209.050	90.8665
209.048	90.8661
209.047	90.8657
209.045	90.8652
209.045	90.8649
209.043	90.8645
209.040	90.8642
209.038	90.8638
209.036	90.8635
209.034	90.8631
209.032	90.8627
209.031	90.8623
209.030	90.8618
209.025	90.8615
209.027	90.8610
209.027	90.8606
209.032	90.8602
209.037	90.8599
209.043	90.8594
209.049	90.8591
209.055	90.8587
209.060	90.8584
209.065	90.8580
209.066	90.8577
209.063	90.8572
209.060	90.8567
209.056	90.8563
209.053	90.8559
209.053	90.8555
209.051	90.8550
209.052	90.8546
209.053	90.8541
209.052	90.8537
209.053	90.8535
209.053	90.8530
209.054	90.8527
209.051	90.8523
209.051	90.8520
209.052	90.8515
209.053	90.8511
209.053	90.8510
209.056	90.8507
209.055	90.8503
209.055	90.8498
209.056	90.8494
209.057	90.8490
209.060	90.8489
209.062	90.8485
209.069	90.8479
209.074	90.8474
209.079	90.8470
209.084	90.8467
209.087	90.8464
209.093	90.8459
209.095	90.8456
209.098	90.8452
209.101	90.8449
209.101	90.8446
209.098	90.8444
209.094	90.8441
209.090	90.8435
209.086	90.8430
209.082	90.8425
209.077	90.8420
209.071	90.8415
209.067	90.8412
209.062	90.8408
209.057	90.8404
209.053	90.8401
209.051	90.8400
209.044	90.8397
209.040	90.8393
209.038	90.8390
209.035	90.8386
209.036	90.8382
209.041	90.8378
209.045	90.8374
209.047	90.8370
209.051	90.8366
209.056	90.8362
209.064	90.8359
209.068	90.8355
209.073	90.8350
209.077	90.8346
209.078	90.8342
209.078	90.8337
209.080	90.8332
209.082	90.8329
209.086	90.8326
209.088	90.8323
209.090	90.8322
209.092	90.8319
209.093	90.8315
209.094	90.8311
209.091	90.8306
209.090	90.8303
209.087	90.8300
209.085	90.8296
209.084	90.8292
209.085	90.8287
209.086	90.8284
209.084	90.8282
209.082	90.8278
209.078	90.8276
209.071	90.8273
209.065	90.8268
209.058	90.8265
209.054	90.8262
209.051	90.8259
209.047	90.8256
209.042	90.8252
209.037	90.8248
209.033	90.8244
209.027	90.8239
209.022	90.8235
209.015	90.8232
209.009	90.8229
209.004	90.8226
208.997	90.8221
208.990	90.8216
208.983	90.8211
208.979	90.8207
208.972	90.8204
208.967	90.8202
208.961	90.8199
208.956	90.8196
208.951	90.8192
208.949	90.8189
208.946	90.8184
208.945	90.8180
208.944	90.8176
208.943	90.8173
208.943	90.8170
208.947	90.8166
208.948	90.8163
208.950	90.8161
208.957	90.8158
208.965	90.8155
208.966	90.8152
208.967	90.8147
208.968	90.8144
208.972	90.8140
208.976	90.8136
208.979	90.8132
208.982	90.8128
208.982	90.8123
208.985	90.8120
208.982	90.8117
208.981	90.8114
208.981	90.8110
208.982	90.8106
208.984	90.8103
208.987	90.8099
208.991	90.8094
208.995	90.8090
208.997	90.8087
208.998	90.8083
209.001	90.8078
209.004	90.8074
209.006	90.8069
209.007	90.8065
209.004	90.8061
209.001	90.8059
208.993	90.8056
208.985	90.8053
208.972	90.8049
208.961	90.8046
208.951	90.8042
208.945	90.8039
208.941	90.8036
208.939	90.8033
208.941	90.8029
208.942	90.8028
208.944	90.8026
208.946	90.8023
208.947	90.8019
208.948	90.8015
208.952	90.8011
208.957	90.8006
208.960	90.8002
208.962	90.8000
208.966	90.7997
208.972	90.7993
208.978	90.7990
208.983	90.7987
208.986	90.7985
208.987	90.7983
208.987	90.7981
208.988	90.7979
208.989	90.7975
208.992	90.7969
208.994	90.7964
209.000	90.7962
209.012	90.7958
209.027	90.7954
209.041	90.7950
209.056	90.7947
209.072	90.7941
209.087	90.7937
209.099	90.7934
209.112	90.7931
209.122	90.7928
209.130	90.7925
209.139	90.7921
209.149	90.7918
209.156	90.7915
209.158	90.7912
209.158	90.7908
209.157	90.7904
209.154	90.7900
209.152	90.7896
209.151	90.7893
209.150	90.7889
209.149	90.7889
209.150	90.7888
209.148	90.7885
209.136	90.7881
209.127	90.7876
209.122	90.7873
209.107	90.7869
209.090	90.7866
209.073	90.7863
209.054	90.7860
209.034	90.7856
209.020	90.7852
209.010	90.7848
209.003	90.7845
208.995	90.7842
208.989	90.7838
208.983	90.7834
208.974	90.7828
208.969	90.7823
208.962	90.7821
208.957	90.7818
208.958	90.7816
208.954	90.7816
208.952	90.7816
208.949	90.7814
208.945	90.7811
208.940	90.7807
208.939	90.7802
208.942	90.7798
208.948	90.7795
208.963	90.7790
208.980	90.7786
208.996	90.7783
209.012	90.7781
209.028	90.7776
209.040	90.7772
209.051	90.7767
209.062	90.7762
209.072	90.7758
209.079	90.7754
209.089	90.7752
209.096	90.7751
209.104	90.7748
209.111	90.7745
209.116	90.7742
209.120	90.7740
209.122	90.7737
209.123	90.7733
209.123	90.7729
209.120	90.7725
209.119	90.7721
209.119	90.7718
209.117	90.7714
209.115	90.7713
209.116	90.7710
209.121	90.7707
209.123	90.7705
209.128	90.7703
209.136	90.7699
209.140	90.7695
209.145	90.7692
209.152	90.7689
209.154	90.7686
209.148	90.7683
209.146	90.7679
209.142	90.7676
209.145	90.7672
209.144	90.7668
209.144	90.7664
209.144	90.7661
209.142	90.7660
209.138	90.7657
209.136	90.7652
209.132	90.7649
209.132	90.7646
209.134	90.7642
209.134	90.7639
209.137	90.7635
209.140	90.7632
209.145	90.7630
209.152	90.7627
209.157	90.7625
209.160	90.7622
209.157	90.7618
209.158	90.7614
209.160	90.7611
209.158	90.7609
209.159	90.7605
209.156	90.7601
209.156	90.7598
209.155	90.7594
209.154	90.7590
209.156	90.7586
209.157	90.7582
209.154	90.7579
209.156	90.7576
209.159	90.7574
209.156	90.7571
209.154	90.7568
209.152	90.7564
209.151	90.7559
209.150	90.7557
209.144	90.7553
209.139	90.7550
209.135	90.7548
209.133	90.7545
209.134	90.7542
209.133	90.7538
209.134	90.7534
209.132	90.7532
209.130	90.7529
209.121	90.7527
209.105	90.7524
209.089	90.7520
209.071	90.7517
209.060	90.7514
209.045	90.7512
209.033	90.7511
209.022	90.7510
209.013	90.7506
209.005	90.7501
208.997	90.7496
208.990	90.7492
208.984	90.7488
208.979	90.7484
208.975	90.7481
208.971	90.7478
208.968	90.7476
208.967	90.7473
208.965	90.7471
208.964	90.7467
208.963	90.7464
208.957	90.7460
208.953	90.7456
208.950	90.7451
208.946	90.7447
208.944	90.7444
208.943	90.7442
208.939	90.7439
208.937	90.7437
208.936	90.7434
208.934	90.7431
208.933	90.7427
208.932	90.7425
208.931	90.7422
208.930	90.7419
208.923	90.7416
208.921	90.7412
208.919	90.7408
208.916	90.7406
208.914	90.7402
208.916	90.7399
208.918	90.7395
208.928	90.7391
208.938	90.7389
208.952	90.7386
208.964	90.7382
208.977	90.7379
208.979	90.7377
208.979	90.7374
208.977	90.7372
208.976	90.7369
208.979	90.7368
208.988	90.7365
208.999	90.7362
209.014	90.7358
209.027	90.7354
209.039	90.7352
209.050	90.7349
209.059	90.7346
209.070	90.7344
209.079	90.7341
209.089	90.7338
209.097	90.7335
209.103	90.7332
209.110	90.7329
209.112	90.7324
209.116	90.7319
209.120	90.7314
209.125	90.7311
209.126	90.7308
209.128	90.7306
209.131	90.7303
209.138	90.7301
209.140	90.7299
209.138	90.7297
209.136	90.7292
209.138	90.7289
209.137	90.7287
209.137	90.7282
209.136	90.7280
209.137	90.7277
209.139	90.7273
209.140	90.7271
209.143	90.7268
209.145	90.7263
209.147	90.7260
209.155	90.7258
209.158	90.7255
209.160	90.7253
209.162	90.7250
209.165	90.7247
209.166	90.7246
209.169	90.7242
209.168	90.7239
209.173	90.7236
209.175	90.7232
209.177	90.7229
209.178	90.7225
209.176	90.7222
209.173	90.7219
209.172	90.7216
209.166	90.7213
209.158	90.7210
209.154	90.7206
209.152	90.7204
209.151	90.7201
209.150	90.7199
209.150	90.7195
209.150	90.7193
209.150	90.7191
209.150	90.7189
209.150	90.7186
209.150	90.7181
209.148	90.7178
209.140	90.7174
209.132	90.7171
209.126	90.7168
209.121	90.7164
209.117	90.7162
209.113	90.7160
209.110	90.7158
209.110	90.7156
209.116	90.7154
209.118	90.7151
209.124	90.7147
209.125	90.7144
209.128	90.7139
209.131	90.7136
209.130	90.7133
209.128	90.7129
209.124	90.7127
209.120	90.7124
209.115	90.7127
209.115	90.7126
209.114	90.7124
209.111	90.7121
209.106	90.7115
209.095	90.7110
209.085	90.7106
209.074	90.7103
209.064	90.7099
209.057	90.7097
209.047	90.7095
209.042	90.7091
209.043	90.7089
209.046	90.7085
209.052	90.7082
209.057	90.7079
209.065	90.7073
209.074	90.7069
209.083	90.7066
209.092	90.7065
209.100	90.7062
209.106	90.7060
209.112	90.7058
209.118	90.7056
209.125	90.7053
209.131	90.7051
209.135	90.7047
209.138	90.7044
209.142	90.7040
209.148	90.7036
209.155	90.7033
209.159	90.7029
209.160	90.7026
209.161	90.7023
209.163	90.7020
209.165	90.7016
209.164	90.7014
209.166	90.7011
209.169	90.7008
209.171	90.7005
209.174	90.7003
209.177	90.7000
209.181	90.6998
209.184	90.6997
209.187	90.6996
209.187	90.6993
209.185	90.6990
209.179	90.6986
209.174	90.6983
209.165	90.6980
209.158	90.6978
209.154	90.6974
209.152	90.6969
209.157	90.6966
209.155	90.6962
209.158	90.6959
209.160	90.6957
209.155	90.6954
209.159	90.6952
209.165	90.6950
209.168	90.6948
209.172	90.6945
209.179	90.6943
209.185	90.6941
209.190	90.6938
209.194	90.6936
209.195	90.6933
209.197	90.6929
209.197	90.6927
209.196	90.6923
209.195	90.6921
209.194	90.6916
209.193	90.6912
209.189	90.6913
209.187	90.6910
209.176	90.6905
209.163	90.6902
209.157	90.6899
209.153	90.6893
209.152	90.6887
209.151	90.6884
209.150	90.6882
209.150	90.6882
209.150	90.6880
209.150	90.6877
209.150	90.6874
209.150	90.6874
209.150	90.6873
209.150	90.6871
209.150	90.6868
209.150	90.6865
209.150	90.6862
209.150	90.6858
209.145	90.6854
209.142	90.6852
209.140	90.6850
209.137	90.6847
209.135	90.6844
209.131	90.6840
209.128	90.6836
209.122	90.6834
209.121	90.6830
209.121	90.6828
209.120	90.6825
209.126	90.6822
209.130	90.6820
209.134	90.6819
209.140	90.6816
209.144	90.6813
209.146	90.6810
209.152	90.6807
209.157	90.6804
209.157	90.6801
209.162	90.6798
209.165	90.6795
209.163	90.6792
209.167	90.6790
209.171	90.6788
209.175	90.6784
209.177	90.6780
209.179	90.6778
209.165	90.6776
209.157	90.6773
209.172	90.6770
209.182	90.6767
209.189	90.6763
209.190	90.6760
209.189	90.6758
209.191	90.6755
209.191	90.6752
209.172	90.6749
209.161	90.6744
209.156	90.6741
209.153	90.6739
209.151	90.6737
209.151	90.6736
209.150	90.6734
209.150	90.6731
209.150	90.6728
209.150	90.6725
209.150	90.6723
209.150	90.6724
209.150	90.6721
209.150	90.6718
209.150	90.6715
209.150	90.6712
209.150	90.6709
209.150	90.6705
209.150	90.6700
209.150	90.6698
209.150	90.6694
209.150	90.6692
209.150	90.6689
209.150	90.6685
209.150	90.6682
209.150	90.6679
209.150	90.6676
209.150	90.6673
209.150	90.6669
209.150	90.6666
209.150	90.6660
209.150	90.6659
209.150	90.6658
209.150	90.6657
209.150	90.6655
209.150	90.6651
209.150	90.6649
209.147	90.6645
209.142	90.6643
209.143	90.6640
209.146	90.6638
209.148	90.6637
209.149	90.6635
209.149	90.6633
209.149	90.6631
209.150	90.6630
209.150	90.6625
209.150	90.6621
209.150	90.6618
209.150	90.6617
209.150	90.6615
209.150	90.6613
209.150	90.6612
209.150	90.6608
209.150	90.6605
209.150	90.6602
209.150	90.6600
209.150	90.6597
209.150	90.6593
209.150	90.6590
209.150	90.6588
209.150	90.6586
209.150	90.6583
209.150	90.6579
209.150	90.6576
209.150	90.6574
209.140	90.6573
209.129	90.6571
209.114	90.6568
209.099	90.6566
209.082	90.6563
209.068	90.6560
209.058	90.6557
209.048	90.6555
209.038	90.6552
209.026	90.6551
209.015	90.6547
209.004	90.6544
208.993	90.6543
208.983	90.6541
208.975	90.6539
208.975	90.6538
208.977	90.6537
208.982	90.6535
208.990	90.6532
208.994	90.6528
208.999	90.6523
209.001	90.6518
209.007	90.6515
209.008	90.6512
209.005	90.6509
209.001	90.6507
208.999	90.6503
209.000	90.6499
209.002	90.6496
209.009	90.6495
209.017	90.6494
209.023	90.6491
209.027	90.6488
209.030	90.6485
209.037	90.6483
209.041	90.6481
209.044	90.6479
209.045	90.6479
209.046	90.6476
209.049	90.6474
209.050	90.6472
209.049	90.6470
209.044	90.6466
209.038	90.6462
209.033	90.6460
209.026	90.6459
209.022	90.6456
209.017	90.6454
209.014	90.6451
209.013	90.6449
209.013	90.6447
209.015	90.6444
209.017	90.6443
209.020	90.6441
209.025	90.6437
209.031	90.6435
209.038	90.6435
209.040	90.6433
209.043	90.6430
209.041	90.6426
209.036	90.6423
209.031	90.6419
209.027	90.6416
209.022	90.6413
209.022	90.6411
209.021	90.6409
209.023	90.6407
209.027	90.6406
209.029	90.6403
209.033	90.6399
209.038	90.6393
209.044	90.6390
209.047	90.6389
209.048	90.6387
209.050	90.6384
209.052	90.6383
209.057	90.6381
209.061	90.6379
209.067	90.6377
209.075	90.6373
209.080	90.6370
209.086	90.6368
209.089	90.6365
209.089	90.6361
209.092	90.6359
209.089	90.6357
209.086	90.6356
209.078	90.6353
209.075	90.6351
209.070	90.6349
209.061	90.6347
209.056	90.6344
209.050	90.6342
209.041	90.6339
209.032	90.6336
209.028	90.6335
209.024	90.6332
209.017	90.6328
209.013	90.6327
209.014	90.6325
209.015	90.6321
209.015	90.6319
209.021	90.6316
209.026	90.6313
209.031	90.6311
209.038	90.6312
209.042	90.6310
209.047	90.6307
209.050	90.6303
209.053	90.6300
209.052	90.6297
209.053	90.6295
209.053	90.6292
209.054	90.6291
209.054	90.6289
209.054	90.6285
209.053	90.6282
209.052	90.6280
209.049	90.6278
209.049	90.6275
209.049	90.6270
209.049	90.6266
209.051	90.6265
209.052	90.6264
209.052	90.6264
209.053	90.6263
209.050	90.6261
209.049	90.6260
209.046	90.6257
209.048	90.6254
209.051	90.6252
209.052	90.6248
209.054	90.6244
209.056	90.6242
209.057	90.6238
209.058	90.6235
209.059	90.6232
209.060	90.6230
209.056	90.6228
209.054	90.6225
209.052	90.6223
209.045	90.6221
209.036	90.6219
209.030	90.6218
209.025	90.6218
209.022	90.6217
209.021	90.6214
209.021	90.6210
209.023	90.6207
209.023	90.6204
209.024	90.6200
209.023	90.6198
209.020	90.6195
209.019	90.6193
209.017	90.6191
209.015	90.6189
209.016	90.6187
209.014	90.6185
209.010	90.6182
209.009	90.6179
209.005	90.6177
209.001	90.6175
208.998	90.6173
209.000	90.6170
209.006	90.6166
209.015	90.6164
209.020	90.6162
209.027	90.6160
209.035	90.6158
209.042	90.6156
209.042	90.6154
209.044	90.6153
209.048	90.6150
209.050	90.6148
209.051	90.6146
209.053	90.6142
209.055	90.6139
209.059	90.6137
209.062	90.6135
209.067	90.6132
209.071	90.6131
209.076	90.6128
209.079	90.6126
209.080	90.6124
209.078	90.6120
209.075	90.6117
209.069	90.6115
209.062	90.6112
209.058	90.6110
209.053	90.6108
209.047	90.6104
209.046	90.6102
209.046	90.6100
209.043	90.6099
209.040	90.6099
209.043	90.6097
209.044	90.6096
209.046	90.6091
209.049	90.6088
209.051	90.6084
209.054	90.6079
209.053	90.6078
209.057	90.6075
209.061	90.6074
209.067	90.6072
209.072	90.6071
209.075	90.6068
209.079	90.6066
209.082	90.6064
209.084	90.6066
209.086	90.6065
209.086	90.6060
209.085	90.6056
209.085	90.6051
209.087	90.6045
209.091	90.6041
209.096	90.6038
209.099	90.6037
209.102	90.6035
209.106	90.6034
209.110	90.6033
209.113	90.6032
209.114	90.6030
209.114	90.6028
209.114	90.6026
209.114	90.6023
209.113	90.6019
209.113	90.6016
209.113	90.6013
209.111	90.6011
209.108	90.6008
209.105	90.6005
209.098	90.6003
209.092	90.6000
209.085	90.5998
209.078	90.5996
209.071	90.5994
209.064	90.5991
209.061	90.5988
209.059	90.5987
209.059	90.5986
209.062	90.5983
209.067	90.5979
209.072	90.5976
209.073	90.5974
209.078	90.5970
209.080	90.5968
209.082	90.5966
209.082	90.5965
209.082	90.5965
209.083	90.5964
209.083	90.5962
209.088	90.5960
209.096	90.5957
209.105	90.5954
209.113	90.5949
209.120	90.5946
209.124	90.5942
209.128	90.5939
209.131	90.5938
209.132	90.5940
209.136	90.5939
209.137	90.5937
209.138	90.5933
209.140	90.5929
209.143	90.5925
209.142	90.5922
209.144	90.5920
209.146	90.5918
209.148	90.5918
209.149	90.5917
209.148	90.5915
209.145	90.5910
209.142	90.5906
209.143	90.5905
209.146	90.5904
209.148	90.5904
209.149	90.5904
209.149	90.5902
209.147	90.5901
209.148	90.5899
209.144	90.5896
209.145	90.5894
209.140	90.5892
209.137	90.5888
209.132	90.5884
209.126	90.5882
209.116	90.5878
209.109	90.5875
209.100	90.5872
209.093	90.5870
209.088	90.5868
209.087	90.5868
209.091	90.5865
209.092	90.5861
209.095	90.5857
209.099	90.5854
209.101	90.5852
209.104	90.5849
209.106	90.5847
209.107	90.5844
209.111	90.5843
209.112	90.5841
209.115	90.5839
209.117	90.5837
209.124	90.5835
209.126	90.5833
209.126	90.5829
209.129	90.5827
209.131	90.5824
209.131	90.5823
209.132	90.5821
209.132	90.5820
209.132	90.5819
209.132	90.5816
209.132	90.5815
209.131	90.5815
209.128	90.5814
209.127	90.5812
209.124	90.5808
209.119	90.5805
209.118	90.5802
209.115	90.5799
209.112	90.5796
209.110	90.5794
209.109	90.5793
209.107	90.5791
209.122	90.5788
209.179	90.5786
209.306	90.5783
209.556	90.5781
209.949	90.5778
210.491	90.5776
211.174	90.5773
211.982	90.5772
212.895	90.5771
213.898	90.5770
214.979	90.5768
216.124	90.5765
217.326	90.5762
218.573	90.5760
219.860	90.5755
221.182	90.5753
222.533	90.5751
223.908	90.5748
225.305	90.5744
226.717	90.5738
228.138	90.5732
229.564	90.5730
230.994	90.5727
232.433	90.5721
233.884	90.5714
235.343	90.5707
236.811	90.5701
238.289	90.5692
239.180	90.5687
240.663	90.5677
242.107	90.5667
243.471	90.5658
244.711	90.5648
245.804	90.5636
246.753	90.5623
247.570	90.5609
248.273	90.5596
248.877	90.5583
249.399	90.5571
249.854	90.5556
250.254	90.5543
250.607	90.5527
250.921	90.5511
251.208	90.5495
251.469	90.5482
251.709	90.5467
251.932	90.5453
252.139	90.5436
252.335	90.5421
252.514	90.5406
252.684	90.5392
252.843	90.5380
252.991	90.5367
253.128	90.5353
253.260	90.5337
253.381	90.5321
253.497	90.5306
253.606	90.5292
253.713	90.5279
253.816	90.5266
253.914	90.5252
254.010	90.5239
254.104	90.5226
254.196	90.5212
254.281	90.5199
254.362	90.5186
254.433	90.5173
254.499	90.5161
254.556	90.5149
254.611	90.5137
254.665	90.5124
254.718	90.5112
254.774	90.5099
254.831	90.5086
254.888	90.5074
254.947	90.5062
255.002	90.5050
255.053	90.5039
255.096	90.5028
255.133	90.5017
255.165	90.5006
255.198	90.4995
255.228	90.4983
255.258	90.4971
255.291	90.4959
255.322	90.4948
255.354	90.4938
255.385	90.4928
255.415	90.4917
255.442	90.4906
255.470	90.4896
255.493	90.4886
255.512	90.4874
255.530	90.4863
255.546	90.4853
255.558	90.4841
255.572	90.4829
255.585	90.4819
255.596	90.4808
255.604	90.4797
255.614	90.4788
255.623	90.4777
255.633	90.4766
255.641	90.4756
255.649	90.4745
255.658	90.4735
255.667	90.4725
255.679	90.4715
255.690	90.4704
255.701	90.4694
255.712	90.4683
255.723	90.4672
255.737	90.4662
255.751	90.4650
255.765	90.4641
255.778	90.4632
255.791	90.4623
255.799	90.4615
255.807	90.4607
255.815	90.4600
255.828	90.4590
255.836	90.4580
255.842	90.4570
255.844	90.4559
255.841	90.4549
255.841	90.4540
255.842	90.4530
255.846	90.4521
255.858	90.4514
255.871	90.4507
255.882	90.4497
255.889	90.4485
255.895	90.4475
255.897	90.4467
255.905	90.4460
255.915	90.4451
255.924	90.4440
255.933	90.4428
255.942	90.4418
255.948	90.4409
255.955	90.4401
255.960	90.4393
255.969	90.4384
255.977	90.4373
255.988	90.4362
256.002	90.4351
256.016	90.4343
256.028	90.4335
256.038	90.4328
256.045	90.4322
256.048	90.4314
256.050	90.4305
256.050	90.4296
256.049	90.4287
256.044	90.4279
256.045	90.4269
256.044	90.4260
256.047	90.4256
256.053	90.4248
256.062	90.4239
256.076	90.4230
256.092	90.4221
256.112	90.4210
256.132	90.4200
256.150	90.4190
256.163	90.4181
256.174	90.4173
256.183	90.4166
256.193	90.4159
256.202	90.4152
256.209	90.4144
256.215	90.4136
256.220	90.4126
256.222	90.4118
256.227	90.4109
256.229	90.4101
256.231	90.4094
256.231	90.4086
256.231	90.4078
256.232	90.4070
256.232	90.4061
256.228	90.4051
256.227	90.4042
256.224	90.4035
256.220	90.4028
256.215	90.4020
256.212	90.4012
256.209	90.4004
256.207	90.3996
256.209	90.3988
256.217	90.3981
256.225	90.3973
256.234	90.3964
256.241	90.3957
256.250	90.3949
256.260	90.3941
256.267	90.3933
256.272	90.3926
256.274	90.3918
256.274	90.3910
256.271	90.3903
256.268	90.3894
256.262	90.3886
256.256	90.3879
256.253	90.3873
256.254	90.3867
256.259	90.3859
256.265	90.3850
256.272	90.3842
256.276	90.3833
256.280	90.3824
256.281	90.3818
256.283	90.3812
256.290	90.3805
256.293	90.3797
256.295	90.3787
256.297	90.3778
256.300	90.3768
256.303	90.3761
256.303	90.3756
256.305	90.3751
256.308	90.3745
256.308	90.3738
256.310	90.3731
256.311	90.3722
256.314	90.3714
256.318	90.3706
256.322	90.3700
256.326	90.3693
256.329	90.3686
256.333	90.3679
256.337	90.3670
256.340	90.3662
256.343	90.3653
256.346	90.3645
256.348	90.3638
256.349	90.3630
256.352	90.3624
256.352	90.3617
256.353	90.3610
256.353	90.3603
256.353	90.3596
256.354	90.3589
256.354	90.3582
256.354	90.3576
256.357	90.3569
256.359	90.3561
256.360	90.3555
256.357	90.3549
256.357	90.3543
256.357	90.3536
256.356	90.3528
256.355	90.3521
256.354	90.3514
256.352	90.3509
256.351	90.3504
256.347	90.3498
256.345	90.3489
256.342	90.3481
256.338	90.3474
256.335	90.3467
256.333	90.3459
256.331	90.3453
256.331	90.3447
256.332	90.3441
256.332	90.3435
256.335	90.3427
256.337	90.3420
256.339	90.3412
256.340	90.3405
256.343	90.3398
256.344	90.3391
256.343	90.3385
256.343	90.3378
256.341	90.3370
256.341	90.3364
256.341	90.3357
256.341	90.3351
256.339	90.3344
256.338	90.3337
256.335	90.3329
256.334	90.3321
256.333	90.3314
256.332	90.3307
256.334	90.3303
256.336	90.3299
256.338	90.3296
256.337	90.3289
256.335	90.3282
256.333	90.3273
256.332	90.3266
256.329	90.3258
256.328	90.3250
256.327	90.3243
256.324	90.3237
256.319	90.3231
256.314	90.3224
256.309	90.3218
256.300	90.3212
256.292	90.3207
256.284	90.3201
256.280	90.3194
256.278	90.3185
256.278	90.3178
256.280	90.3172
256.284	90.3166
256.287	90.3161
256.289	90.3157
256.292	90.3151
256.291	90.3144
256.293	90.3137
256.295	90.3132
256.296	90.3126
256.298	90.3119
256.299	90.3114
256.302	90.3107
256.303	90.3100
256.305	90.3094
256.307	90.3087
256.308	90.3080
256.308	90.3074
256.310	90.3069
256.311	90.3065
256.311	90.3059
256.311	90.3055
256.312	90.3050
256.312	90.3043
256.312	90.3036
256.312	90.3029
256.314	90.3023
256.315	90.3016
256.314	90.3010
256.313	90.3004
256.310	90.2998
256.303	90.2992
256.299	90.2986
256.292	90.2979
256.288	90.2975
256.286	90.2971
256.289	90.2964
256.288	90.2957
256.289	90.2951
256.288	90.2945
256.289	90.2940
256.285	90.2934
256.283	90.2928
256.282	90.2922
256.279	90.2917
256.277	90.2912
256.273	90.2907
256.268	90.2900
256.264	90.2893
256.261	90.2885
256.257	90.2879
256.255	90.2875
256.252	90.2871
256.248	90.2865
256.240	90.2859
256.233	90.2852
256.224	90.2846
256.212	90.2840
256.203	90.2835
256.199	90.2830
256.195	90.2827
256.191	90.2822
256.188	90.2815
256.184	90.2809
256.179	90.2802
256.176	90.2795
256.175	90.2789
256.178	90.2783
256.182	90.2777
256.186	90.2771
256.192	90.2766
256.200	90.2762
256.208	90.2757
256.215	90.2752
256.224	90.2747
256.232	90.2741
256.237	90.2734
256.241	90.2728
256.242	90.2722
256.243	90.2714
256.244	90.2708
256.246	90.2705
256.248	90.2701
256.252	90.2697
256.258	90.2692
256.260	90.2687
256.264	90.2683
256.264	90.2678
256.265	90.2674
256.267	90.2669
256.269	90.2663
256.270	90.2657
256.272	90.2651
256.274	90.2644
256.274	90.2638
256.275	90.2633
256.276	90.2629
256.276	90.2625
256.278	90.2620
256.278	90.2614
256.279	90.2609
256.281	90.2603
256.282	90.2598
256.282	90.2594
256.283	90.2589
256.287	90.2584
256.286	90.2578
256.288	90.2574
256.286	90.2569
256.286	90.2564
256.286	90.2561
256.284	90.2555
256.283	90.2549
256.282	90.2544
256.279	90.2537
256.272	90.2532
256.263	90.2528
256.255	90.2524
256.250	90.2520
256.247	90.2515
256.243	90.2509
256.236	90.2500
256.228	90.2493
256.222	90.2489
256.214	90.2485
256.207	90.2480
256.202	90.2475
256.197	90.2470
256.191	90.2466
256.187	90.2462
256.182	90.2458
256.179	90.2453
256.179	90.2449
256.178	90.2443
256.181	90.2439
256.185	90.2433
256.190	90.2427
256.199	90.2422
256.206	90.2417
256.213	90.2412
256.217	90.2407
256.219	90.2404
256.221	90.2401
256.221	90.2396
256.220	90.2391
256.220	90.2386
256.215	90.2380
256.211	90.2374
256.211	90.2369
256.211	90.2365
256.211	90.2359
256.213	90.2354
256.217	90.2349
256.220	90.2345
256.226	90.2342
256.232	90.2337
256.237	90.2333
256.240	90.2328
256.241	90.2324
256.242	90.2318
256.242	90.2312
256.243	90.2306
256.244	90.2302
256.245	90.2298
256.245	90.2294
256.245	90.2289
256.245	90.2285
256.245	90.2280
256.246	90.2274
256.247	90.2268
256.248	90.2264
256.252	90.2260
256.251	90.2257
256.253	90.2253
256.258	90.2249
256.261	90.2245
256.264	90.2239
256.266	90.2234
256.266	90.2229
256.266	90.2223
256.266	90.2217
256.266	90.2213
256.266	90.2208
256.265	90.2204
256.266	90.2200
256.266	90.2195
256.264	90.2191
256.257	90.2186
256.251	90.2182
256.245	90.2177
256.241	90.2173
256.238	90.2168
256.237	90.2164
256.238	90.2159
256.235	90.2155
256.234	90.2151
256.234	90.2146
256.234	90.2141
256.235	90.2137
256.238	90.2132
256.240	90.2128
256.241	90.2123
256.243	90.2119
256.243	90.2114
256.243	90.2110
256.240	90.2104
256.237	90.2099
256.231	90.2094
256.227	90.2089
256.222	90.2086
256.215	90.2083
256.204	90.2080
256.197	90.2076
256.190	90.2070
256.185	90.2065
256.181	90.2061
256.178	90.2057
256.171	90.2053
256.167	90.2049
256.169	90.2043
256.168	90.2039
256.175	90.2035
256.180	90.2031
256.184	90.2027
256.187	90.2023
256.191	90.2020
256.196	90.2016
256.202	90.2013
256.205	90.2009
256.201	90.2004
256.196	90.1999
256.189	90.1994
256.181	90.1989
256.170	90.1984
256.164	90.1980
256.159	90.1976
256.155	90.1972
256.150	90.1967
256.148	90.1962
256.148	90.1958
256.149	90.1955
256.149	90.1951
256.152	90.1948
256.155	90.1944
256.158	90.1941
256.166	90.1937
256.172	90.1933
256.180	90.1928
256.184	90.1924
256.187	90.1918
256.188	90.1914
256.188	90.1909
256.188	90.1905
256.186	90.1900
256.182	90.1895
256.179	90.1889
256.177	90.1885
256.170	90.1881
256.165	90.1878
256.162	90.1875
256.161	90.1871
256.160	90.1866
256.161	90.1861
256.165	90.1857
256.169	90.1855
256.170	90.1850
256.173	90.1846
256.178	90.1843
256.181	90.1839
256.184	90.1835
256.185	90.1831
256.185	90.1827
256.183	90.1823
256.181	90.1819
256.178	90.1815
256.174	90.1812
256.168	90.1808
256.171	90.1803
256.173	90.1800
256.179	90.1796
256.183	90.1793
256.187	90.1788
256.190	90.1782
256.193	90.1777
256.194	90.1772
256.196	90.1768
256.196	90.1764
256.195	90.1760
256.194	90.1756
256.193	90.1752
256.192	90.1751
256.192	90.1748
256.192	90.1744
256.190	90.1739
256.189	90.1735
256.185	90.1730
256.182	90.1725
256.175	90.1721
256.169	90.1716
256.163	90.1712
256.158	90.1708
256.152	90.1704
256.149	90.1701
256.151	90.1697
256.153	90.1693
256.157	90.1690
256.158	90.1687
256.159	90.1682
256.159	90.1678
256.159	90.1673
256.160	90.1668
256.160	90.1662
256.159	90.1659
256.160	90.1657
256.159	90.1654
256.158	90.1651
256.158	90.1647
256.158	90.1644
256.159	90.1641
256.157	90.1636
256.157	90.1632
256.155	90.1629
256.152	90.1625
256.150	90.1621
256.147	90.1617
256.144	90.1614
256.143	90.1608
256.143	90.1604
256.145	90.1601
256.145	90.1596
256.145	90.1592
256.145	90.1588
256.144	90.1585
256.144	90.1582
256.144	90.1578
256.145	90.1575
256.145	90.1572
256.144	90.1567
256.145	90.1563
256.145	90.1560
256.146	90.1555
256.146	90.1552
256.146	90.1549
256.146	90.1546
256.142	90.1542
256.139	90.1538
256.140	90.1535
256.143	90.1531
256.140	90.1528
256.140	90.1525
256.139	90.1522
256.136	90.1519
256.135	90.1516
256.134	90.1512
256.135	90.1508
256.135	90.1505
256.135	90.1501
256.136	90.1496
256.133	90.1493
256.131	90.1490
256.130	90.1486
256.130	90.1482
256.131	90.1477
256.131	90.1474
256.130	90.1473
256.129	90.1468
256.127	90.1463
256.127	90.1459
256.126	90.1455
256.125	90.1451
256.125	90.1446
256.125	90.1442
256.125	90.1438
256.126	90.1434
256.125	90.1430
256.125	90.1427
256.125	90.1425
256.125	90.1423
256.123	90.1420
256.122	90.1419
256.121	90.1416
256.120	90.1415
256.118	90.1413
256.115	90.1410
256.112	90.1405
256.109	90.1399
256.107	90.1393
256.108	90.1388
256.113	90.1384
256.117	90.1381
256.120	90.1379
256.124	90.1374
256.130	90.1370
256.137	90.1367
256.140	90.1365
256.140	90.1362
256.138	90.1358
256.134	90.1355
256.130	90.1352
256.123	90.1349
256.112	90.1347
256.098	90.1345
256.086	90.1343
256.078	90.1339
256.070	90.1334
256.062	90.1330
256.056	90.1326
256.054	90.1323
256.056	90.1320
256.061	90.1317
256.064	90.1313
256.061	90.1310
256.059	90.1307
256.056	90.1305
256.055	90.1301
256.058	90.1297
256.063	90.1295
256.071	90.1290
256.082	90.1286
256.094	90.1284
256.107	90.1280
256.115	90.1276
256.120	90.1273
256.122	90.1269
256.122	90.1266
256.123	90.1263
256.122	90.1259
256.122	90.1255
256.123	90.1252
256.124	90.1251
256.126	90.1248
256.127	90.1244
256.128	90.1240
256.128	90.1237
256.126	90.1232
256.121	90.1228
256.114	90.1225
256.104	90.1221
256.089	90.1217
256.073	90.1214
256.056	90.1213
256.039	90.1210
256.024	90.1206
256.013	90.1201
256.005	90.1196
256.000	90.1192
255.997	90.1188
255.996	90.1184
255.996	90.1178
255.990	90.1174
255.987	90.1173
255.986	90.1174
255.992	90.1172
256.003	90.1169
256.018	90.1165
256.032	90.1161
256.046	90.1157
256.057	90.1154
256.067	90.1150
256.075	90.1145
256.083	90.1142
256.088	90.1139
256.093	90.1137
256.094	90.1134
256.097	90.1130
256.098	90.1126
256.101	90.1122
256.102	90.1119
256.102	90.1114
256.102	90.1111
256.104	90.1106
256.105	90.1103
256.105	90.1100
256.104	90.1098
256.102	90.1097
256.097	90.1096
256.094	90.1094
256.089	90.1090
256.085	90.1085
256.080	90.1081
256.078	90.1076
256.077	90.1071
256.076	90.1066
256.080	90.1062
256.085	90.1059
256.089	90.1057
256.090	90.1056
256.091	90.1054
256.091	90.1052
256.091	90.1048
256.088	90.1044
256.085	90.1040
256.083	90.1038
256.078	90.1035
256.076	90.1033
256.073	90.1030
256.072	90.1027
256.071	90.1024
256.070	90.1020
256.072	90.1017
256.072	90.1015
256.073	90.1013
256.073	90.1011
256.074	90.1008
256.076	90.1005
256.078	90.1003
256.077	90.0999
256.076	90.0995
256.079	90.0993
256.078	90.0991
256.079	90.0987
256.082	90.0983
256.083	90.0978
256.087	90.0975
256.090	90.0971
256.093	90.0967
256.096	90.0965
256.098	90.0963
256.099	90.0960
256.097	90.0955
256.095	90.0952
256.092	90.0950
256.088	90.0947
256.083	90.0944
256.078	90.0940
256.074	90.0936
256.072	90.0934
256.065	90.0932
256.061	90.0930
256.064	90.0928
256.065	90.0924
256.067	90.0921
256.068	90.0918
256.067	90.0914
256.064	90.0912
256.058	90.0908
256.055	90.0905
256.053	90.0901
256.053	90.0898
256.055	90.0895
256.057	90.0891
256.056	90.0889
256.053	90.0887
256.046	90.0883
256.035	90.0879
256.025	90.0877
256.018	90.0876
256.016	90.0874
256.017	90.0871
256.022	90.0867
256.029	90.0863
256.033	90.0859
256.035	90.0855
256.037	90.0852
256.039	90.0849
256.039	90.0846
256.039	90.0843
256.038	90.0840
256.038	90.0838
256.038	90.0836
256.039	90.0833
256.041	90.0830
256.045	90.0826
256.049	90.0824
256.057	90.0822
256.061	90.0820
256.064	90.0818
256.067	90.0815
256.069	90.0811
256.070	90.0807
256.071	90.0804
256.072	90.0800
256.073	90.0796
256.074	90.0794
256.074	90.0793
256.077	90.0792
256.080	90.0789
256.082	90.0783
256.082	90.0781
256.084	90.0778
256.083	90.0775
256.083	90.0772
256.083	90.0771
256.083	90.0768
256.082	90.0764
256.080	90.0761
256.076	90.0757
256.072	90.0755
256.064	90.0754
256.055	90.0751
256.046	90.0747
256.036	90.0744
256.028	90.0740
256.023	90.0736
256.020	90.0734
256.019	90.0732
256.018	90.0731
256.019	90.0729
256.020	90.0725
256.017	90.0721
256.014	90.0717
256.011	90.0714
256.010	90.0712
256.009	90.0710
256.008	90.0706
256.008	90.0702
256.005	90.0699
256.005	90.0695
256.002	90.0692
256.000	90.0690
255.998	90.0688
255.998	90.0686
255.997	90.0683
255.994	90.0680
255.995	90.0677
256.000	90.0675
256.004	90.0673
256.010	90.0671
256.019	90.0669
256.028	90.0667
256.033	90.0663
256.038	90.0660
256.044	90.0657
256.048	90.0654
256.050	90.0651
256.051	90.0647
256.052	90.0644
256.053	90.0642
256.052	90.0639
256.052	90.0636
256.053	90.0634
256.056	90.0632
256.059	90.0628
256.061	90.0625
256.061	90.0620
256.064	90.0616
256.065	90.0612
256.067	90.0611
256.067	90.0609
256.067	90.0608
256.066	90.0607
256.066	90.0605
256.063	90.0602
256.061	90.0598
256.058	90.0596
256.056	90.0592
256.054	90.0588
256.053	90.0585
256.049	90.0583
256.043	90.0581
256.034	90.0578
256.025	90.0575
256.014	90.0571
256.003	90.0572
255.992	90.0570
255.979	90.0566
255.970	90.0561
255.961	90.0557
255.953	90.0553
255.945	90.0548
255.939	90.0546
255.935	90.0544
255.933	90.0542
255.932	90.0540
255.931	90.0539
255.931	90.0536
255.930	90.0534
255.930	90.0531
255.924	90.0528
255.914	90.0524
255.894	90.0521
255.869	90.0519
255.842	90.0517
255.815	90.0518
255.797	90.0516
255.786	90.0512
255.782	90.0510
255.782	90.0504
255.783	90.0498
255.787	90.0495
255.791	90.0492
255.792	90.0490
255.792	90.0487
255.788	90.0485
255.780	90.0484
255.765	90.0479
255.750	90.0475
255.736	90.0472
255.721	90.0468
255.712	90.0466
255.702	90.0464
255.695	90.0460
255.684	90.0458
255.675	90.0456
255.669	90.0455
255.660	90.0451
255.653	90.0448
255.647	90.0444
255.642	90.0442
255.637	90.0439
255.638	90.0437
255.640	90.0436
255.647	90.0434
255.658	90.0432
255.675	90.0429
255.696	90.0427
255.713	90.0423
255.726	90.0419
255.735	90.0418
255.735	90.0418
255.732	90.0417
255.725	90.0415
255.720	90.0412
255.709	90.0408
255.702	90.0405
255.694	90.0402
255.689	90.0399
255.688	90.0397
255.689	90.0393
255.690	90.0390
255.689	90.0386
255.685	90.0382
255.679	90.0379
255.670	90.0376
255.665	90.0374
255.662	90.0375
255.660	90.0375
255.657	90.0371
255.658	90.0368
255.659	90.0365
255.665	90.0360
255.673	90.0354
255.681	90.0351
255.690	90.0347
255.698	90.0344
255.707	90.0342
255.718	90.0338
255.728	90.0334
255.740	90.0331
255.751	90.0329
255.764	90.0326
255.780	90.0324
255.795	90.0321
255.809	90.0319
255.824	90.0318
255.836	90.0315
255.849	90.0313
255.858	90.0310
255.866	90.0308
255.869	90.0305
255.868	90.0304
255.867	90.0303
255.863	90.0301
255.860	90.0299
255.861	90.0295
255.864	90.0292
255.870	90.0288
255.879	90.0283
255.887	90.0281
255.894	90.0279
255.904	90.0276
255.910	90.0273
255.910	90.0270
255.908	90.0267
255.904	90.0263
255.903	90.0259
255.901	90.0253
255.900	90.0251
255.900	90.0249
255.900	90.0247
255.907	90.0244
255.912	90.0243
255.917	90.0241
255.923	90.0238
255.928	90.0236
255.937	90.0234
255.942	90.0232
255.944	90.0229
255.941	90.0226
255.939	90.0223
255.939	90.0220
255.938	90.0216
255.939	90.0212
255.939	90.0208
255.938	90.0206
255.937	90.0206
255.936	90.0205
255.933	90.0202
255.928	90.0200
255.921	90.0196
255.911	90.0193
255.901	90.0190
255.899	90.0187
255.897	90.0185
255.896	90.0183
255.893	90.0180
255.887	90.0177
255.881	90.0172
255.874	90.0168
255.870	90.0165
255.865	90.0164
255.864	90.0162
255.862	90.0159
255.858	90.0156
255.854	90.0153
255.852	90.0149
255.849	90.0147
255.847	90.0144
255.846	90.0140
255.847	90.0138
255.848	90.0135
255.854	90.0130
255.864	90.0128
255.875	90.0126
255.888	90.0124
255.901	90.0122
255.911	90.0120
255.916	90.0117
255.918	90.0116
255.917	90.0116
255.917	90.0114
255.917	90.0110
255.917	90.0106
255.917	90.0103
255.914	90.0101
255.911	90.0097
255.908	90.0094
255.904	90.0092
255.904	90.0091
255.905	90.0088
255.907	90.0085
255.908	90.0081
255.909	90.0077
255.907	90.0073
255.900	90.0072
255.893	90.0069
255.884	90.0065
255.875	90.0061
255.867	90.0056
255.857	90.0053
255.849	90.0051
255.845	90.0050
255.840	90.0048
255.839	90.0045
255.837	90.0044
255.839	90.0041
255.839	90.0039
255.835	90.0036
255.832	90.0033
255.829	90.0031
255.826	90.0028
255.825	90.0025
255.823	90.0023
255.820	90.0020
255.816	90.0018
255.812	90.0016
255.807	90.0013
255.803	90.0009
255.797	90.0006
255.791	90.0004
255.787	90.0000
255.783	89.9996
255.778	89.9992
255.769	89.9988
255.761	89.9986
255.752	89.9986
255.742	89.9984
255.733	89.9983
255.726	89.9980
255.718	89.9976
255.717	89.9972
255.719	89.9968
255.722	89.9966
255.727	89.9964
255.736	89.9963
255.747	89.9960
255.758	89.9957
255.768	89.9953
255.773	89.9950
255.777	89.9949
255.778	89.9947
255.778	89.9944
255.778	89.9941
255.777	89.9938
255.777	89.9935
255.779	89.9934
255.783	89.9930
255.792	89.9927
255.801	89.9923
255.810	89.9920
255.816	89.9917
255.820	89.9915
255.822	89.9913
255.827	89.9911
255.829	89.9908
255.831	89.9905
255.832	89.9902
255.833	89.9899
255.838	89.9895
255.842	89.9892
255.845	89.9889
255.853	89.9887
255.856	89.9886
255.860	89.9882
255.858	89.9877
255.855	89.9874
255.856	89.9873
255.854	89.9869
255.851	89.9867
255.849	89.9864
255.845	89.9862
255.840	89.9859
255.832	89.9855
255.829	89.9851
255.830	89.9848
255.834	89.9846
255.839	89.9845
255.842	89.9844
255.851	89.9843
255.857	89.9841
255.865	89.9839
255.870	89.9837
255.874	89.9834
255.879	89.9831
255.882	89.9828
255.889	89.9826
255.892	89.9822
255.894	89.9817
255.896	89.9812
255.897	89.9810
255.899	89.9810
255.905	89.9809
255.910	89.9806
255.914	89.9801
255.915	89.9795
255.916	89.9792
255.916	89.9787
255.916	89.9783
255.917	89.9779
255.921	89.9776
255.930	89.9774
255.940	89.9773
255.953	89.9771
255.964	89.9769
255.974	89.9767
255.980	89.9763
255.982	89.9761
255.983	89.9759
255.981	89.9755
255.978	89.9752
255.972	89.9749
255.966	89.9746
255.962	89.9743
255.958	89.9741
255.955	89.9740
255.954	89.9737
255.953	89.9733
255.953	89.9731
255.956	89.9728
255.955	89.9726
255.955	89.9723
255.955	89.9721
255.954	89.9717
255.953	89.9714
255.947	89.9711
255.939	89.9707
255.931	89.9702
255.923	89.9698
255.913	89.9696
255.906	89.9695
255.900	89.9693
255.898	89.9690
255.896	89.9686
255.896	89.9683
255.900	89.9680
255.904	89.9678
255.906	89.9675
255.908	89.9673
255.909	89.9670
255.911	89.9667
255.914	89.9665
255.915	89.9662
255.918	89.9658
255.920	89.9654
255.920	89.9651
255.919	89.9646
255.916	89.9644
255.916	89.9641
255.916	89.9639
255.916	89.9638
255.916	89.9635
255.916	89.9632
255.914	89.9629
255.914	89.9627
255.915	89.9625
255.916	89.9621
255.916	89.9618
255.916	89.9614
255.916	89.9610
255.916	89.9606
255.914	89.9604
255.910	89.9601
255.906	89.9598
255.902	89.9595
255.899	89.9592
255.898	89.9591
255.897	89.9590
255.896	89.9588
255.892	89.9584
255.892	89.9580
255.891	89.9576
255.889	89.9573
255.889	89.9569
255.886	89.9568
255.882	89.9566
255.882	89.9564
255.882	89.9561
255.880	89.9558
255.879	89.9554
255.877	89.9550
255.876	89.9546
255.873	89.9541
255.874	89.9537
255.873	89.9532
255.874	89.9528
255.875	89.9528
255.876	89.9528
255.876	89.9526
255.876	89.9524
255.877	89.9523
255.876	89.9521
255.876	89.9517
255.874	89.9512
255.869	89.9508
255.863	89.9505
255.855	89.9502
255.848	89.9500
255.840	89.9497
255.836	89.9493
255.832	89.9490
255.835	89.9485
255.841	89.9482
255.850	89.9480
255.860	89.9479
255.867	89.9477
255.875	89.9475
255.884	89.9471
255.894	89.9467
255.905	89.9463
255.914	89.9456
255.921	89.9451
255.927	89.9448
255.935	89.9446
255.943	89.9443
255.952	89.9439
255.957	89.9436
255.963	89.9434
255.966	89.9432
255.969	89.9429
255.969	89.9426
255.968	89.9424
255.970	89.9422
255.973	89.9421
255.970	89.9419
255.968	89.9417
255.966	89.9414
255.965	89.9410
255.959	89.9405
255.953	89.9401
255.944	89.9397
255.938	89.9394
255.930	89.9390
255.923	89.9387
255.916	89.9385
255.908	89.9383
255.904	89.9381
255.902	89.9378
255.906	89.9376
255.911	89.9372
255.921	89.9369
255.937	89.9366
255.953	89.9363
255.968	89.9360
255.977	89.9358
255.982	89.9353
255.984	89.9349
255.984	89.9346
255.982	89.9344
255.981	89.9341
255.979	89.9339
255.977	89.9336
255.976	89.9332
255.976	89.9327
255.978	89.9324
255.981	89.9322
255.983	89.9320
255.987	89.9318
255.990	89.9316
255.993	89.9313
255.995	89.9309
255.994	89.9305
255.993	89.9302
255.994	89.9300
255.995	89.9298
255.995	89.9294
255.996	89.9290
255.996	89.9286
255.999	89.9282
256.001	89.9278
256.003	89.9276
256.005	89.9273
256.006	89.9271
256.007	89.9269
256.007	89.9268
256.006	89.9266
256.006	89.9263
256.006	89.9258
256.006	89.9255
256.005	89.9251
256.005	89.9248
256.005	89.9245
256.005	89.9242
256.006	89.9239
256.007	89.9235
256.009	89.9231
256.010	89.9228
256.009	89.9225
256.008	89.9221
256.004	89.9218
256.000	89.9215
255.992	89.9213
255.987	89.9210
255.982	89.9208
255.977	89.9205
255.972	89.9201
255.969	89.9199
255.968	89.9195
255.966	89.9191
255.966	89.9187
255.965	89.9184
255.970	89.9181
255.975	89.9177
255.981	89.9174
255.986	89.9171
255.986	89.9168
255.986	89.9168
255.984	89.9165
255.979	89.9161
255.973	89.9158
255.969	89.9154
255.966	89.9152
255.966	89.9148
255.968	89.9144
255.971	89.9142
255.976	89.9138
255.981	89.9136
255.984	89.9133
255.983	89.9129
255.981	89.9127
255.974	89.9125
255.967	89.9121
255.959	89.9117
255.952	89.9114
255.948	89.9112
255.948	89.9109
255.953	89.9105
255.959	89.9102
255.963	89.9099
255.966	89.9095
255.971	89.9090
255.975	89.9086
255.978	89.9083
255.979	89.9081
255.977	89.9078
255.972	89.9074
255.968	89.9070
255.963	89.9065
255.959	89.9060
255.955	89.9054
255.949	89.9050
255.944	89.9048
255.941	89.9045
255.939	89.9042
255.940	89.9041
255.945	89.9038
255.952	89.9035
255.958	89.9031
255.963	89.9027
255.972	89.9024
255.977	89.9021
255.980	89.9019
255.982	89.9017
255.978	89.9014
255.974	89.9009
255.971	89.9006
255.968	89.9003
255.967	89.8999
255.966	89.8996
255.965	89.8992
255.965	89.8990
255.966	89.8987
255.966	89.8983
255.970	89.8979
255.972	89.8976
255.973	89.8974
255.971	89.8970
255.968	89.8966
255.964	89.8963
255.963	89.8960
255.962	89.8958
255.959	89.8955
255.960	89.8954
255.961	89.8951
255.963	89.8948
255.965	89.8945
255.965	89.8944
255.968	89.8944
255.967	89.8940
255.966	89.8935
255.964	89.8931
255.960	89.8926
255.956	89.8921
255.950	89.8917
255.944	89.8912
255.940	89.8908
255.939	89.8904
255.938	89.8901
255.938	89.8896
255.938	89.8894
255.940	89.8892
255.938	89.8889
255.935	89.8885
255.932	89.8882
255.932	89.8878
255.933	89.8874
255.934	89.8868
255.936	89.8864
255.939	89.8863
255.948	89.8861
255.959	89.8858
255.970	89.8855
255.978	89.8853
255.986	89.8851
255.993	89.8849
255.999	89.8845
256.006	89.8842
256.009	89.8838
256.014	89.8834
256.017	89.8830
256.017	89.8827
256.018	89.8824
256.016	89.8821
256.015	89.8819
256.015	89.8816
256.012	89.8812
256.010	89.8809
256.005	89.8805
256.003	89.8801
256.004	89.8798
256.004	89.8795
256.004	89.8792
256.004	89.8789
256.006	89.8785
256.008	89.8781
256.011	89.8778
256.014	89.8775
256.016	89.8771
256.018	89.8767
256.026	89.8764
256.030	89.8760
256.033	89.8757
256.035	89.8753
256.037	89.8750
256.037	89.8746
256.038	89.8743
256.039	89.8739
256.045	89.8735
256.048	89.8732
256.051	89.8729
256.049	89.8726
256.045	89.8722
256.034	89.8719
256.022	89.8715
256.010	89.8712
255.999	89.8709
255.989	89.8708
255.982	89.8705
255.979	89.8703
255.975	89.8700
255.972	89.8695
255.969	89.8690
255.967	89.8687
255.963	89.8684
255.958	89.8681
255.951	89.8679
255.945	89.8677
255.941	89.8674
255.937	89.8669
255.933	89.8664
255.924	89.8660
255.911	89.8657
255.895	89.8653
255.876	89.8649
255.863	89.8646
255.854	89.8644
255.850	89.8640
255.848	89.8637
255.854	89.8632
255.864	89.8628
255.880	89.8625
255.900	89.8621
255.915	89.8619
255.924	89.8615
255.927	89.8612
255.925	89.8608
255.921	89.8604
255.915	89.8600
255.908	89.8597
255.905	89.8593
255.902	89.8590
255.900	89.8587
255.898	89.8585
255.897	89.8583
255.897	89.8581
255.896	89.8578
255.893	89.8575
255.891	89.8572
255.890	89.8569
255.888	89.8566
255.888	89.8563
255.887	89.8561
255.887	89.8556
255.884	89.8551
255.882	89.8547
255.879	89.8543
255.877	89.8541
255.876	89.8539
255.875	89.8537
255.876	89.8534
255.877	89.8530
255.881	89.8527
255.884	89.8523
255.888	89.8520
255.889	89.8516
255.890	89.8514
255.889	89.8510
255.888	89.8506
255.887	89.8502
255.892	89.8498
255.896	89.8496
255.901	89.8493
255.908	89.8489
255.912	89.8485
255.915	89.8482
255.916	89.8478
255.917	89.8476
255.918	89.8472
255.913	89.8468
255.906	89.8465
255.894	89.8461
255.876	89.8459
255.860	89.8454
255.849	89.8448
255.844	89.8445
255.843	89.8442
255.845	89.8440
255.847	89.8439
255.856	89.8437
255.863	89.8433
255.870	89.8429
255.878	89.8425
255.886	89.8422
255.892	89.8419
255.896	89.8416
255.898	89.8413
255.899	89.8410
255.897	89.8407
255.897	89.8404
255.896	89.8400
255.897	89.8397
255.896	89.8393
255.895	89.8390
255.891	89.8388
255.887	89.8384
255.883	89.8380
255.883	89.8375
255.882	89.8370
255.880	89.8367
255.880	89.8364
255.878	89.8360
255.877	89.8357
255.875	89.8353
255.874	89.8348
255.872	89.8343
255.874	89.8339
255.876	89.8336
255.877	89.8335
255.883	89.8334
255.886	89.8332
255.890	89.8331
255.896	89.8328
255.903	89.8324
255.914	89.8320
255.924	89.8315
255.930	89.8310
255.938	89.8306
255.944	89.8302
255.949	89.8299
255.952	89.8297
255.958	89.8293
255.962	89.8290
255.965	89.8286
255.970	89.8283
255.975	89.8280
255.980	89.8277
255.986	89.8273
255.992	89.8270
255.999	89.8266
256.005	89.8262
256.011	89.8259
256.015	89.8256
256.017	89.8252
256.018	89.8248
256.014	89.8246
256.009	89.8242
255.999	89.8239
255.992	89.8236
255.985	89.8233
255.983	89.8230
255.980	89.8227
255.975	89.8224
255.969	89.8221
255.961	89.8215
255.950	89.8209
255.942	89.8205
255.936	89.8201
255.931	89.8197
255.929	89.8193
255.925	89.8190
255.922	89.8188
255.915	89.8186
255.907	89.8182
255.894	89.8178
255.885	89.8175
255.877	89.8172
255.875	89.8168
255.877	89.8163
255.883	89.8160
255.891	89.8157
255.901	89.8153
255.910	89.8150
255.917	89.8148
255.923	89.8145
255.926	89.8142
255.927	89.8139
255.926	89.8135
255.924	89.8130
255.922	89.8126
255.922	89.8122
255.921	89.8119
255.922	89.8116
255.927	89.8112
255.930	89.8109
255.934	89.8105
255.942	89.8103
255.951	89.8099
255.959	89.8095
255.968	89.8091
255.972	89.8089
255.973	89.8085
255.975	89.8083
255.975	89.8080
255.979	89.8076
255.982	89.8073
255.986	89.8070
255.993	89.8064
255.999	89.8060
256.005	89.8057
256.007	89.8054
256.012	89.8049
256.015	89.8045
256.018	89.8042
256.019	89.8038
256.020	89.8035
256.020	89.8031
256.019	89.8028
256.018	89.8026
256.016	89.8022
256.012	89.8019
256.010	89.8016
256.008	89.8012
256.008	89.8009
256.007	89.8007
256.007	89.8003
256.007	89.7999
256.005	89.7996
256.001	89.7993
255.997	89.7988
255.991	89.7984
255.987	89.7981
255.985	89.7976
255.984	89.7973
255.985	89.7970
255.989	89.7967
255.995	89.7963
255.999	89.7960
256.004	89.7956
256.004	89.7952
256.006	89.7948
256.007	89.7945
256.009	89.7943
256.012	89.7942
256.015	89.7940
256.018	89.7936
256.019	89.7932
256.018	89.7927
256.014	89.7922
256.010	89.7919
256.009	89.7916
256.007	89.7914
256.006	89.7912
256.005	89.7909
256.000	89.7906
255.994	89.7901
255.988	89.7896
